# Receiver Set: route rx 1pv                                                     
# Transmitter Set: tx                                                               
# Format: Path Number  Phase (Deg.)  Time (s)  Power (dBm)
     38
     1    106
    1   158.728   0.25126875E-07   -69.522
    2    76.209   0.25608090E-07   -71.321
    3    84.320   0.25617890E-07   -71.422
    4    36.362   0.25639487E-07   -71.454
    5    95.940   0.25610268E-07   -72.911
    6    58.310   0.25637032E-07   -72.915
    7   -43.598   0.11323095E-07   -74.244
    8    38.511   0.11261355E-07   -74.313
    9    25.727   0.59607572E-07   -77.194
   10   -52.546   0.59811306E-07   -77.912
   11   -65.965   0.59821886E-07   -77.950
   12  -110.566   0.27039656E-07   -78.828
   13   173.360   0.27079551E-07   -79.028
   14  -164.556   0.27072558E-07   -79.102
   15    22.446   0.41260211E-07   -80.161
   16    84.367   0.41211369E-07   -80.577
   17    51.827   0.60449068E-07   -81.933
   18  -120.825   0.14277402E-07   -81.973
   19    46.046   0.60453729E-07   -82.024
   20   -17.515   0.14215944E-07   -82.295
   21  -165.045   0.27374956E-07   -82.391
   22   -59.283   0.29359821E-07   -83.721
   23   -23.941   0.10130798E-06   -83.903
   24     3.807   0.10142803E-06   -84.350
   25     7.391   0.10142864E-06   -84.872
   26    -1.635   0.10143580E-06   -84.873
   27     1.673   0.29348875E-07   -85.518
   28   -14.433   0.61499051E-07   -85.783
   29   -40.736   0.61515756E-07   -86.156
   30   108.264   0.29256778E-07   -86.323
   31    10.496   0.29327408E-07   -86.324
   32    76.147   0.10180358E-06   -86.787
   33    71.474   0.10180740E-06   -86.901
   34   -98.216   0.85858403E-07   -87.752
   35   172.601   0.29236494E-07   -88.078
   36  -130.731   0.86030042E-07   -88.108
   37    89.720   0.29302385E-07   -88.186
   38  -110.682   0.86010161E-07   -88.300
   39  -105.734   0.86006231E-07   -88.300
   40  -105.514   0.86014623E-07   -88.823
   41  -100.659   0.86006523E-07   -88.970
   42  -174.948   0.18068691E-07   -89.109
   43    53.409   0.18170361E-07   -89.126
   44  -178.002   0.10243270E-06   -89.380
   45  -175.413   0.10243067E-06   -89.516
   46  -145.944   0.30552254E-07   -89.543
   47   161.947   0.85884686E-07   -89.650
   48   -59.979   0.41623736E-07   -89.685
   49   -46.403   0.41613138E-07   -89.725
   50    71.503   0.22620814E-07   -89.818
   51  -104.726   0.18055429E-07   -90.219
   52   126.441   0.18154937E-07   -90.268
   53    39.202   0.22632264E-07   -90.550
   54   147.329   0.86030212E-07   -90.581
   55   141.629   0.86034674E-07   -90.617
   56   173.428   0.10244850E-06   -90.760
   57  -162.707   0.86002629E-07   -90.781
   58    79.181   0.30296746E-07   -90.970
   59     2.138   0.30718383E-07   -91.075
   60    25.816   0.30697368E-07   -91.106
   61    30.898   0.22637524E-07   -91.121
   62    -5.346   0.30724223E-07   -91.143
   63  -161.189   0.60363817E-07   -91.287
   64   111.744   0.31387291E-07   -91.287
   65    65.350   0.22636867E-07   -91.499
   66  -144.309   0.60359589E-07   -91.510
   67  -141.636   0.60366020E-07   -91.746
   68  -158.331   0.60366780E-07   -91.825
   69   172.792   0.20096801E-07   -91.866
   70   -82.421   0.13946819E-07   -91.974
   71  -169.062   0.86437197E-07   -92.932
   72   171.276   0.86453021E-07   -93.156
   73   146.612   0.86472689E-07   -93.268
   74    39.199   0.12771206E-06   -93.373
   75    64.652   0.12784557E-06   -93.569
   76    57.464   0.86549072E-07   -93.678
   77    96.657   0.12780866E-06   -93.736
   78   -29.633   0.13922710E-07   -93.890
   79    97.651   0.12781534E-06   -93.930
   80  -134.594   0.32136274E-07   -94.112
   81   112.372   0.33363051E-07   -95.195
   82   134.167   0.19719236E-07   -95.756
   83    -9.647   0.26884923E-07   -95.759
   84   -95.281   0.32124017E-07   -96.338
   85  -139.935   0.32166419E-07   -96.358
   86   -35.665   0.26901489E-07   -96.557
   87  -103.351   0.31556812E-07   -96.584
   88  -102.922   0.31556429E-07   -96.641
   89   -33.128   0.26896062E-07   -96.852
   90    -5.651   0.31967392E-07   -97.023
   91   -15.009   0.26898984E-07   -97.221
   92   171.258   0.31903443E-07   -97.648
   93   150.697   0.31922010E-07   -97.697
   94  -172.817   0.22441684E-07   -98.211
   95  -150.856   0.22424143E-07   -98.222
   96   -29.593   0.13946712E-07   -98.261
   97   107.038   0.31917573E-07   -98.296
   98   177.753   0.31559850E-07   -98.446
   99    71.865   0.31938118E-07   -98.579
  100   102.507   0.31914276E-07   -98.669
  101   135.305   0.31585593E-07   -99.074
  102    39.621   0.31954666E-07   -99.115
  103   -57.919   0.26897233E-07   -99.245
  104    31.837   0.31955636E-07   -99.513
  105   157.670   0.31944737E-07   -99.617
  106  -169.592   0.31908726E-07   -99.817
     2     96
    1    40.304   0.12638805E-07   -66.245
    2   -32.211   0.12695891E-07   -66.461
    3   150.215   0.28239601E-07   -70.175
    4   132.951   0.28668898E-07   -71.718
    5    97.220   0.28697018E-07   -71.854
    6   151.354   0.28671366E-07   -73.279
    7   131.068   0.28694625E-07   -73.305
    8    21.744   0.30007616E-07   -76.476
    9   -17.427   0.15330048E-07   -77.011
   10  -124.990   0.15392695E-07   -77.291
   11   128.534   0.29965161E-07   -79.013
   12    87.184   0.29984008E-07   -79.147
   13   125.014   0.30246479E-07   -79.656
   14    -1.894   0.38144428E-07   -80.180
   15   -52.101   0.15057916E-07   -81.588
   16  -113.535   0.15081303E-07   -82.520
   17   -58.940   0.15080925E-07   -83.977
   18  -142.069   0.98115230E-07   -84.070
   19  -134.695   0.20898897E-07   -84.397
   20   154.697   0.20536945E-07   -85.020
   21  -167.716   0.32026517E-07   -85.833
   22   170.879   0.32054331E-07   -85.856
   23  -108.035   0.31972103E-07   -85.906
   24  -171.982   0.32026392E-07   -85.923
   25   159.539   0.32041818E-07   -85.985
   26    -9.007   0.19060705E-07   -86.251
   27   119.015   0.18962032E-07   -86.268
   28   -94.633   0.98510661E-07   -86.634
   29   -90.406   0.98507307E-07   -86.635
   30   145.293   0.27012749E-07   -86.946
   31    73.127   0.19039742E-07   -87.264
   32  -157.110   0.18936815E-07   -87.272
   33   -34.874   0.31950709E-07   -87.880
   34  -112.957   0.32012654E-07   -87.890
   35   -88.364   0.21134776E-07   -88.720
   36   -19.369   0.99163962E-07   -89.278
   37   -22.023   0.89173554E-07   -89.951
   38   -48.725   0.89194742E-07   -89.953
   39  -111.068   0.32924447E-07   -90.035
   40   135.742   0.33153974E-07   -90.177
   41   -32.355   0.89323642E-07   -90.498
   42   -28.491   0.89320579E-07   -90.498
   43   131.615   0.24737728E-07   -90.780
   44   -36.424   0.89318910E-07   -90.860
   45   -35.059   0.57120854E-07   -90.881
   46   -45.287   0.89325880E-07   -90.897
   47   -17.230   0.89315520E-07   -91.001
   48   -18.380   0.89316870E-07   -91.167
   49   -10.374   0.57114796E-07   -91.202
   50   -17.929   0.24433861E-07   -91.264
   51    -1.473   0.57111922E-07   -91.306
   52   -20.217   0.57122108E-07   -91.454
   53   -94.195   0.21153268E-07   -91.548
   54   -69.834   0.33312649E-07   -91.735
   55   -52.196   0.33298608E-07   -91.760
   56   -31.955   0.89744880E-07   -92.117
   57     3.418   0.57117646E-07   -92.412
   58   -30.311   0.89751012E-07   -93.003
   59    -5.555   0.89731564E-07   -93.213
   60   168.372   0.13103812E-06   -93.585
   61     9.161   0.22863293E-07   -93.752
   62  -152.779   0.24954074E-07   -93.894
   63  -134.597   0.13113505E-06   -93.948
   64  -127.819   0.89834913E-07   -94.055
   65  -141.576   0.13114806E-06   -94.150
   66  -130.662   0.13113480E-06   -94.370
   67   -28.265   0.34631348E-07   -95.325
   68   164.730   0.31048916E-07   -95.465
   69   -65.346   0.17660943E-07   -95.573
   70   -31.956   0.34634606E-07   -95.625
   71    71.228   0.22838950E-07   -95.703
   72  -106.129   0.24934277E-07   -95.759
   73   -15.528   0.34617994E-07   -95.789
   74   -14.282   0.34613372E-07   -95.811
   75   141.321   0.34407407E-07   -96.243
   76   -33.950   0.17625924E-07   -96.259
   77   -49.765   0.26417164E-07   -96.280
   78    29.769   0.23131424E-07   -96.352
   79   -10.875   0.23163606E-07   -96.354
   80  -159.599   0.31055940E-07   -96.401
   81   115.758   0.34424591E-07   -96.522
   82    83.573   0.34444533E-07   -97.228
   83    15.430   0.22883295E-07   -97.318
   84   -46.243   0.22348804E-07   -97.356
   85   126.204   0.34115001E-07   -97.420
   86   -57.197   0.22357460E-07   -97.774
   87    43.918   0.22862730E-07   -97.850
   88   142.957   0.34435541E-07   -98.358
   89   167.686   0.34408060E-07   -98.699
   90  -165.186   0.34088483E-07   -98.744
   91  -168.049   0.34088199E-07   -98.845
   92   151.283   0.34416466E-07   -98.994
   93    77.648   0.34465863E-07   -99.435
   94   -80.092   0.26447877E-07   -99.553
   95    99.748   0.34444021E-07   -99.746
   96    94.906   0.22844429E-07   -99.914
     3     97
    1   -72.249   0.14659815E-07   -62.914
    2  -135.487   0.14709642E-07   -63.133
    3   -73.611   0.18140733E-07   -64.797
    4    95.412   0.31398084E-07   -70.925
    5   137.237   0.31787387E-07   -72.496
    6   104.353   0.31809833E-07   -72.523
    7   -60.744   0.17034569E-07   -73.661
    8   150.377   0.31786481E-07   -73.783
    9   125.974   0.31806184E-07   -73.928
   10  -159.310   0.17090814E-07   -74.150
   11  -141.722   0.16789439E-07   -77.945
   12  -145.459   0.33017727E-07   -78.388
   13   -69.399   0.32954279E-07   -78.966
   14  -101.194   0.32968757E-07   -79.174
   15   162.153   0.16811581E-07   -79.214
   16    16.997   0.22178856E-07   -79.753
   17  -144.844   0.16809917E-07   -79.982
   18   -88.414   0.21838940E-07   -79.994
   19   -42.649   0.33223458E-07   -81.755
   20   -21.811   0.33213865E-07   -82.059
   21    75.191   0.22403260E-07   -83.078
   22    56.327   0.22419510E-07   -83.164
   23     2.655   0.18954896E-07   -83.329
   24   117.595   0.20368111E-07   -83.504
   25  -103.944   0.21563682E-07   -84.213
   26   -25.852   0.40161176E-07   -84.562
   27  -154.243   0.20341719E-07   -84.573
   28    37.280   0.20460236E-07   -84.903
   29  -142.293   0.34842191E-07   -85.680
   30  -161.314   0.34864453E-07   -85.683
   31   116.631   0.20437964E-07   -86.118
   32   -96.045   0.34833825E-07   -87.542
   33   -18.878   0.34776196E-07   -87.562
   34   -67.860   0.24043310E-07   -88.052
   35  -131.673   0.34866378E-07   -88.105
   36  -176.408   0.36165986E-07   -88.354
   37   -23.809   0.34793320E-07   -88.431
   38    -5.306   0.24016044E-07   -90.238
   39   113.566   0.92490183E-07   -90.338
   40    90.391   0.92508571E-07   -90.339
   41   103.832   0.92644129E-07   -90.801
   42   106.979   0.92641635E-07   -90.802
   43   115.881   0.92630302E-07   -90.848
   44    -4.299   0.38900833E-07   -90.883
   45    84.410   0.53891924E-07   -90.897
   46   120.299   0.92623097E-07   -91.151
   47   147.271   0.19170258E-07   -91.369
   48   129.115   0.92623615E-07   -91.386
   49   119.121   0.92631545E-07   -91.387
   50   -94.349   0.35878582E-07   -91.475
   51   130.365   0.53877212E-07   -91.528
   52   -15.076   0.35670542E-07   -91.553
   53   115.429   0.53884367E-07   -91.587
   54   -73.713   0.24066718E-07   -91.590
   55   -32.949   0.24042150E-07   -91.773
   56  -155.998   0.23553262E-07   -91.802
   57  -178.116   0.19126917E-07   -92.175
   58   119.789   0.53886723E-07   -92.178
   59  -166.434   0.23559782E-07   -92.265
   60    66.743   0.36029125E-07   -93.088
   61   151.055   0.93039965E-07   -93.215
   62    78.698   0.36016715E-07   -93.347
   63   158.773   0.93029719E-07   -93.509
   64   141.348   0.93039894E-07   -93.961
   65   -69.434   0.13436507E-06   -94.028
   66    -9.743   0.13446454E-06   -94.160
   67   -50.742   0.24325081E-07   -94.230
   68    35.717   0.93129465E-07   -94.361
   69    12.990   0.24024095E-07   -94.439
   70    -0.599   0.25299594E-07   -94.796
   71    -4.383   0.13445850E-06   -94.813
   72   -76.702   0.24083654E-07   -94.818
   73   -45.225   0.25338036E-07   -94.833
   74   -73.908   0.37224449E-07   -95.038
   75  -100.176   0.37245307E-07   -95.054
   76    23.071   0.24295389E-07   -95.203
   77  -114.715   0.24362860E-07   -96.048
   78   -40.857   0.25081775E-07   -96.183
   79    75.125   0.27471437E-07   -96.543
   80   -25.019   0.30390815E-07   -96.554
   81   -25.003   0.30390801E-07   -96.568
   82  -142.047   0.30619880E-07   -96.918
   83    92.840   0.27492719E-07   -97.212
   84    22.305   0.37043485E-07   -97.360
   85  -100.123   0.39374157E-07   -97.685
   86    -1.901   0.37059316E-07   -97.737
   87   -99.977   0.55744763E-07   -97.975
   88   -26.157   0.30808785E-07   -98.557
   89   -49.058   0.22028507E-07   -98.564
   90   165.930   0.25209037E-07   -98.888
   91   -50.121   0.30826662E-07   -98.998
   92   -33.001   0.30815539E-07   -99.010
   93    -7.504   0.37087823E-07   -99.266
   94   -98.600   0.26463139E-07   -99.312
   95    32.799   0.37056015E-07   -99.542
   96    45.482   0.37043083E-07   -99.882
   97    50.065   0.36745696E-07   -99.954
     4    101
    1    11.176   0.17097699E-07   -61.723
    2   -43.449   0.17140707E-07   -61.933
    3    79.142   0.18585318E-07   -64.180
    4    49.650   0.19177291E-07   -71.927
    5   -20.450   0.19223958E-07   -72.342
    6    51.628   0.34977365E-07   -72.729
    7   102.617   0.34950745E-07   -73.004
    8    62.895   0.34964234E-07   -73.164
    9   117.880   0.34947689E-07   -74.242
   10    85.011   0.34959729E-07   -74.453
   11     6.998   0.21319945E-07   -74.908
   12    66.350   0.34589885E-07   -75.177
   13  -123.290   0.19613450E-07   -77.089
   14   -65.153   0.18955326E-07   -77.622
   15  -128.504   0.23544935E-07   -77.626
   16     9.376   0.23859423E-07   -77.709
   17   -10.719   0.36042799E-07   -78.809
   18  -112.483   0.18973134E-07   -79.026
   19    19.984   0.36004050E-07   -79.083
   20   -66.478   0.18971534E-07   -79.495
   21    70.832   0.24084384E-07   -80.369
   22    89.094   0.36243893E-07   -81.965
   23   102.444   0.24070625E-07   -82.534
   24  -103.987   0.22260151E-07   -83.100
   25   -65.621   0.22266313E-07   -84.604
   26    82.522   0.25605216E-07   -85.336
   27   -67.335   0.24914026E-07   -85.733
   28   136.151   0.25591609E-07   -87.041
   29   146.988   0.25577496E-07   -87.348
   30   161.197   0.37741749E-07   -87.456
   31   130.255   0.25594010E-07   -87.722
   32   -99.650   0.37696331E-07   -88.432
   33  -165.698   0.37748695E-07   -88.502
   34   -48.372   0.40619096E-07   -88.781
   35   128.871   0.25595124E-07   -88.813
   36   -42.283   0.25142507E-07   -89.258
   37   -50.598   0.25149083E-07   -89.381
   38   -43.307   0.37682675E-07   -90.341
   39  -113.642   0.37734821E-07   -90.505
   40  -169.726   0.21089228E-07   -90.652
   41    63.105   0.39372839E-07   -90.917
   42  -111.946   0.95808254E-07   -90.967
   43  -132.604   0.95824646E-07   -90.968
   44  -144.145   0.50666507E-07   -91.089
   45  -150.147   0.50666568E-07   -91.158
   46   164.029   0.25586361E-07   -91.243
   47   101.383   0.25622620E-07   -91.341
   48   -94.229   0.95936215E-07   -91.441
   49  -106.761   0.95946092E-07   -91.477
   50  -147.332   0.21053998E-07   -91.674
   51   -88.203   0.95938944E-07   -91.680
   52   -97.091   0.95942234E-07   -92.015
   53   140.858   0.25870415E-07   -92.345
   54    -0.118   0.39996024E-07   -92.420
   55   159.605   0.31653308E-07   -92.471
   56  -160.700   0.26575162E-07   -92.886
   57    68.835   0.25900096E-07   -93.105
   58    58.613   0.25906246E-07   -93.285
   59   173.543   0.31638901E-07   -93.328
   60   -90.583   0.38703860E-07   -93.389
   61   -51.089   0.96335043E-07   -93.807
   62   -33.438   0.38509956E-07   -93.850
   63    64.690   0.31861543E-07   -93.953
   64   -42.761   0.96328655E-07   -94.027
   65    59.467   0.13769133E-06   -94.233
   66   112.889   0.13779578E-06   -94.369
   67   169.875   0.32063962E-07   -94.543
   68  -165.821   0.96427911E-07   -94.578
   69   166.397   0.32067881E-07   -94.590
   70  -154.598   0.96423364E-07   -94.659
   71    39.830   0.39972768E-07   -94.847
   72   127.250   0.13778261E-06   -95.017
   73    81.633   0.38842131E-07   -95.259
   74    96.736   0.38830066E-07   -95.301
   75  -169.560   0.32043076E-07   -95.330
   76   171.372   0.32058097E-07   -95.370
   77    90.345   0.28988685E-07   -95.800
   78   164.007   0.28847175E-07   -96.032
   79  -124.453   0.27888255E-07   -96.037
   80  -152.842   0.32045097E-07   -96.049
   81  -152.097   0.32043836E-07   -96.106
   82    10.669   0.96999230E-07   -96.471
   83    87.922   0.32830137E-07   -96.510
   84    42.393   0.26701759E-07   -96.573
   85   178.139   0.28871291E-07   -96.908
   86  -113.033   0.41941266E-07   -97.249
   87   -65.248   0.23724896E-07   -97.260
   88  -130.104   0.32022275E-07   -97.272
   89   177.014   0.32064658E-07   -97.324
   90  -174.541   0.52660887E-07   -97.868
   91    51.504   0.27474364E-07   -98.170
   92   -48.752   0.27556080E-07   -98.177
   93   114.104   0.32821564E-07   -98.683
   94    51.438   0.27970982E-07   -98.859
   95    98.802   0.30109170E-07   -99.279
   96   111.719   0.39802405E-07   -99.302
   97   129.218   0.39785917E-07   -99.347
   98   112.439   0.39798834E-07   -99.501
   99    95.866   0.27927726E-07   -99.558
  100    66.838   0.32836088E-07   -99.564
  101  -125.124   0.35893567E-07   -99.581
     5    107
    1   136.259   0.19799186E-07   -61.492
    2    85.702   0.19836094E-07   -61.594
    3   170.531   0.21616691E-07   -70.799
    4    94.751   0.21661204E-07   -71.249
    5   -12.132   0.38148837E-07   -73.626
    6   -23.346   0.38149885E-07   -73.773
    7    24.135   0.38828400E-07   -74.671
    8     7.538   0.38145362E-07   -75.104
    9    25.909   0.22020668E-07   -75.275
   10   -49.714   0.37806423E-07   -76.082
   11   -45.642   0.25864086E-07   -76.829
   12   140.914   0.25574199E-07   -76.829
   13    27.223   0.26084635E-07   -78.742
   14    -2.521   0.21423700E-07   -78.905
   15    38.024   0.26071676E-07   -79.154
   16    -8.572   0.21423226E-07   -79.202
   17    34.819   0.39109082E-07   -79.588
   18    90.342   0.24333390E-07   -80.016
   19    -6.278   0.21438403E-07   -80.695
   20   -60.594   0.21441766E-07   -81.041
   21   173.725   0.24309761E-07   -81.435
   22    21.466   0.24411047E-07   -81.975
   23   -28.091   0.26118100E-07   -82.814
   24  -126.430   0.27456426E-07   -83.499
   25  -152.626   0.27479002E-07   -83.517
   26   100.728   0.24390548E-07   -83.556
   27    34.482   0.40672671E-07   -85.484
   28  -178.202   0.27509399E-07   -86.668
   29  -168.000   0.27500732E-07   -86.941
   30    -2.958   0.27090985E-07   -87.012
   31  -131.745   0.27482894E-07   -87.143
   32  -115.578   0.27467976E-07   -87.276
   33   160.735   0.27519095E-07   -87.605
   34    26.411   0.27052710E-07   -87.921
   35    32.542   0.40715978E-07   -88.315
   36    86.686   0.40684174E-07   -88.524
   37    79.578   0.42246377E-07   -90.824
   38    82.177   0.40703057E-07   -90.844
   39   -62.014   0.27727431E-07   -90.870
   40    23.506   0.99129323E-07   -91.253
   41  -134.823   0.33426179E-07   -91.438
   42     2.959   0.33176747E-07   -91.476
   43     2.966   0.33176743E-07   -91.480
   44  -159.991   0.27760722E-07   -91.661
   45    44.177   0.99254940E-07   -91.726
   46    30.490   0.99265733E-07   -91.762
   47   178.426   0.23337622E-07   -91.888
   48   -92.784   0.33389384E-07   -92.078
   49  -176.760   0.23329390E-07   -92.121
   50    48.791   0.99254791E-07   -92.213
   51    40.011   0.99261761E-07   -92.214
   52  -171.455   0.33452007E-07   -92.312
   53     5.851   0.27701304E-07   -92.331
   54    47.612   0.33560344E-07   -93.278
   55    -5.006   0.31299031E-07   -93.319
   56   113.917   0.42225665E-07   -93.585
   57    21.912   0.33579237E-07   -93.609
   58   -40.610   0.33630862E-07   -93.883
