# Receiver Set: route rx 1pv                                                     
# Transmitter Set: tx                                                               
# Format: Path Number  Phase (Deg.)  Time (s)  Power (dBm)
     38
     1     25
    1   158.728   0.25126875E-07   -66.522
    2    76.209   0.25608090E-07   -68.321
    3    84.320   0.25617890E-07   -68.422
    4    36.362   0.25639487E-07   -68.454
    5    95.940   0.25610268E-07   -69.911
    6    58.310   0.25637032E-07   -69.915
    7   -43.598   0.11323095E-07   -71.244
    8    38.511   0.11261355E-07   -71.313
    9    25.727   0.59607572E-07   -74.194
   10   -52.546   0.59811306E-07   -74.912
   11   -65.965   0.59821886E-07   -74.950
   12  -110.566   0.27039656E-07   -75.828
   13   173.360   0.27079551E-07   -76.028
   14  -164.556   0.27072558E-07   -76.102
   15    22.446   0.41260211E-07   -77.161
   16    84.367   0.41211369E-07   -77.577
   17    51.827   0.60449068E-07   -78.933
   18  -120.825   0.14277402E-07   -78.973
   19    46.046   0.60453729E-07   -79.024
   20   -17.515   0.14215944E-07   -79.295
   21  -165.045   0.27374956E-07   -79.391
   22   -59.283   0.29359821E-07   -80.721
   23   -23.941   0.10130798E-06   -80.903
   24     3.807   0.10142803E-06   -81.350
   25     7.391   0.10142864E-06   -81.872
     2     25
    1    40.304   0.12638805E-07   -63.245
    2   -32.211   0.12695891E-07   -63.461
    3   150.215   0.28239601E-07   -67.175
    4   132.951   0.28668898E-07   -68.718
    5    97.220   0.28697018E-07   -68.854
    6   151.354   0.28671366E-07   -70.279
    7   131.068   0.28694625E-07   -70.305
    8    21.744   0.30007616E-07   -73.476
    9   -17.427   0.15330048E-07   -74.011
   10  -124.990   0.15392695E-07   -74.291
   11   128.534   0.29965161E-07   -76.013
   12    87.184   0.29984008E-07   -76.147
   13   125.014   0.30246479E-07   -76.656
   14    -1.894   0.38144428E-07   -77.180
   15   -52.101   0.15057916E-07   -78.588
   16  -113.535   0.15081303E-07   -79.520
   17   -58.940   0.15080925E-07   -80.977
   18  -142.069   0.98115230E-07   -81.070
   19  -134.695   0.20898897E-07   -81.397
   20   154.697   0.20536945E-07   -82.020
   21  -167.716   0.32026517E-07   -82.833
   22   170.879   0.32054331E-07   -82.856
   23  -108.035   0.31972103E-07   -82.906
   24  -171.982   0.32026392E-07   -82.923
   25   159.539   0.32041818E-07   -82.985
     3     25
    1   -72.249   0.14659815E-07   -59.914
    2  -135.487   0.14709642E-07   -60.133
    3   -73.611   0.18140733E-07   -61.797
    4    95.412   0.31398084E-07   -67.925
    5   137.237   0.31787387E-07   -69.496
    6   104.353   0.31809833E-07   -69.523
    7   -60.744   0.17034569E-07   -70.661
    8   150.377   0.31786481E-07   -70.783
    9   125.974   0.31806184E-07   -70.928
   10  -159.310   0.17090814E-07   -71.150
   11  -141.722   0.16789439E-07   -74.945
   12  -145.459   0.33017727E-07   -75.388
   13   -69.399   0.32954279E-07   -75.966
   14  -101.194   0.32968757E-07   -76.174
   15   162.153   0.16811581E-07   -76.214
   16    16.997   0.22178856E-07   -76.753
   17  -144.844   0.16809917E-07   -76.982
   18   -88.414   0.21838940E-07   -76.994
   19   -42.649   0.33223458E-07   -78.755
   20   -21.811   0.33213865E-07   -79.059
   21    75.191   0.22403260E-07   -80.078
   22    56.327   0.22419510E-07   -80.164
   23     2.655   0.18954896E-07   -80.329
   24   117.595   0.20368111E-07   -80.504
   25  -103.944   0.21563682E-07   -81.213
     4     25
    1    11.176   0.17097699E-07   -58.723
    2   -43.449   0.17140707E-07   -58.933
    3    79.142   0.18585318E-07   -61.180
    4    49.650   0.19177291E-07   -68.927
    5   -20.450   0.19223958E-07   -69.342
    6    51.628   0.34977365E-07   -69.729
    7   102.617   0.34950745E-07   -70.004
    8    62.895   0.34964234E-07   -70.164
    9   117.880   0.34947689E-07   -71.242
   10    85.011   0.34959729E-07   -71.453
   11     6.998   0.21319945E-07   -71.908
   12    66.350   0.34589885E-07   -72.177
   13  -123.290   0.19613450E-07   -74.089
   14   -65.153   0.18955326E-07   -74.622
   15  -128.504   0.23544935E-07   -74.626
   16     9.376   0.23859423E-07   -74.709
   17   -10.719   0.36042799E-07   -75.809
   18  -112.483   0.18973134E-07   -76.026
   19    19.984   0.36004050E-07   -76.083
   20   -66.478   0.18971534E-07   -76.495
   21    70.832   0.24084384E-07   -77.369
   22    89.094   0.36243893E-07   -78.965
   23   102.444   0.24070625E-07   -79.534
   24  -103.987   0.22260151E-07   -80.100
   25   -65.621   0.22266313E-07   -81.604
     5     25
    1   136.259   0.19799186E-07   -58.492
    2    85.702   0.19836094E-07   -58.594
    3   170.531   0.21616691E-07   -67.799
    4    94.751   0.21661204E-07   -68.249
    5   -12.132   0.38148837E-07   -70.626
    6   -23.346   0.38149885E-07   -70.773
    7    24.135   0.38828400E-07   -71.671
    8     7.538   0.38145362E-07   -72.104
    9    25.909   0.22020668E-07   -72.275
   10   -49.714   0.37806423E-07   -73.082
   11   -45.642   0.25864086E-07   -73.829
   12   140.914   0.25574199E-07   -73.829
   13    27.223   0.26084635E-07   -75.742
   14    -2.521   0.21423700E-07   -75.905
   15    38.024   0.26071676E-07   -76.154
   16    -8.572   0.21423226E-07   -76.202
   17    34.819   0.39109082E-07   -76.588
   18    90.342   0.24333390E-07   -77.016
   19    -6.278   0.21438403E-07   -77.695
   20   -60.594   0.21441766E-07   -78.040
   21   173.725   0.24309761E-07   -78.435
   22    21.466   0.24411047E-07   -78.975
   23   -28.091   0.26118100E-07   -79.814
   24  -126.430   0.27456426E-07   -80.499
   25  -152.626   0.27479002E-07   -80.517
     6     25
    1   -71.821   0.24632852E-07   -71.271
    2  -115.787   0.41358781E-07   -71.512
    3    19.109   0.41971525E-07   -72.141
    4   -69.508   0.28124827E-07   -74.185
    5   -56.654   0.28112309E-07   -74.314
    6    41.148   0.28322701E-07   -75.700
    7   -75.121   0.26724701E-07   -75.976
    8    33.691   0.42241176E-07   -76.667
    9    27.387   0.42257657E-07   -76.869
   10   -25.877   0.42273143E-07   -76.876
   11    30.432   0.28313462E-07   -76.910
   12    -5.744   0.42261082E-07   -76.998
   13    18.899   0.27742429E-07   -77.345
   14    28.983   0.28324587E-07   -77.525
   15    13.163   0.27741775E-07   -77.940
   16    75.152   0.28300462E-07   -77.982
   17  -125.590   0.26789863E-07   -78.158
   18  -137.572   0.26806255E-07   -78.179
   19   137.946   0.42454388E-07   -78.877
   20   126.524   0.42456101E-07   -78.878
   21     9.242   0.28332243E-07   -79.650
   22    16.958   0.29593510E-07   -80.168
   23   -16.895   0.29617633E-07   -80.514
   24   106.501   0.43739519E-07   -82.589
   25    27.817   0.29604607E-07   -83.766
     7     25
    1  -134.703   0.25663454E-07   -59.252
    2  -166.346   0.25688507E-07   -59.297
    3    27.613   0.27103686E-07   -66.796
    4    -1.559   0.27402027E-07   -70.676
    5   123.952   0.44582261E-07   -72.088
    6   115.256   0.44585171E-07   -72.178
    7   132.044   0.44590397E-07   -72.880
    8   141.691   0.44591385E-07   -73.376
    9    11.713   0.30602415E-07   -74.583
   10    14.975   0.44292484E-07   -74.731
   11    32.617   0.30578914E-07   -74.899
   12   -70.969   0.29317148E-07   -76.718
   13   172.387   0.30744225E-07   -76.898
   14  -142.621   0.29374188E-07   -77.039
   15    -8.739   0.45406065E-07   -77.105
   16   -35.656   0.45419952E-07   -77.395
   17   -38.509   0.45429946E-07   -77.474
   18    97.735   0.30788648E-07   -78.022
   19   101.514   0.30791632E-07   -79.130
   20   123.943   0.45597218E-07   -79.317
   21  -117.450   0.29374808E-07   -79.560
   22  -115.601   0.31959836E-07   -80.719
   23  -101.828   0.31937411E-07   -80.736
   24    92.570   0.30799729E-07   -80.760
   25  -165.546   0.31979589E-07   -81.609
     8     25
    1   -24.441   0.47827555E-07   -72.859
    2   -11.437   0.47824500E-07   -73.942
    3  -155.169   0.47554952E-07   -75.533
    4    41.093   0.32963644E-07   -76.302
    5   -71.125   0.33192446E-07   -76.529
    6    48.147   0.47827200E-07   -77.473
    7   -84.554   0.48593449E-07   -77.522
    8    64.971   0.33366049E-07   -77.840
    9    83.143   0.33351192E-07   -78.061
   10   138.425   0.49953357E-07   -80.184
   11   100.308   0.33342047E-07   -80.195
   12   -60.587   0.34444756E-07   -81.691
   13  -146.605   0.49921329E-07   -81.969
   14  -114.750   0.49892204E-07   -82.621
   15   -66.006   0.34464801E-07   -84.195
   16   -84.349   0.49888122E-07   -84.671
   17   -40.666   0.34450625E-07   -84.940
   18   -12.173   0.10829729E-06   -85.205
   19   -65.067   0.34461625E-07   -85.359
   20   -19.648   0.34126227E-07   -86.224
   21   -20.174   0.34126508E-07   -86.243
   22   -28.594   0.34685197E-07   -86.475
   23   160.981   0.24215367E-06   -86.568
   24   161.952   0.24215277E-06   -86.646
   25   -35.568   0.34455255E-07   -86.846
     9     25
    1  -131.836   0.31847311E-07   -60.604
    2  -157.410   0.31867543E-07   -60.646
    3   -25.429   0.33050444E-07   -67.498
    4   -27.871   0.33052419E-07   -67.536
    5   175.189   0.51082296E-07   -73.581
    6   152.129   0.51088961E-07   -73.729
    7  -159.746   0.51081152E-07   -74.500
    8   -96.265   0.34943451E-07   -74.802
    9    27.652   0.50826745E-07   -76.242
   10   -17.581   0.34905497E-07   -76.995
   11  -176.983   0.51801823E-07   -77.966
   12  -105.834   0.51080416E-07   -78.106
   13    55.152   0.35919225E-07   -78.187
   14   134.365   0.35711121E-07   -78.259
   15  -151.293   0.36075992E-07   -79.640
   16  -143.222   0.36069192E-07   -79.851
   17  -125.387   0.53019878E-07   -80.438
   18  -121.055   0.36057958E-07   -81.726
   19   -95.958   0.53016322E-07   -82.586
   20  -125.748   0.53035940E-07   -83.010
   21   177.367   0.37082298E-07   -83.267
   22  -141.848   0.53067659E-07   -84.415
   23   -88.121   0.53026010E-07   -85.178
   24   154.371   0.11159369E-06   -85.451
   25   162.081   0.37103444E-07   -86.135
    10     25
    1  -147.083   0.34991313E-07   -61.174
    2  -134.275   0.34988485E-07   -61.253
    3  -166.367   0.35010114E-07   -61.340
    4   154.571   0.36050228E-07   -67.370
    5   113.523   0.36071881E-07   -67.849
    6   125.731   0.36073374E-07   -67.874
    7    16.688   0.54347034E-07   -74.089
    8     7.880   0.54346302E-07   -74.215
    9   -76.531   0.37788936E-07   -74.258
   10  -103.769   0.37799417E-07   -74.340
   11   -57.685   0.37793669E-07   -76.199
   12   -14.863   0.37748851E-07   -76.763
   13  -154.383   0.54106156E-07   -76.909
   14    69.588   0.55022461E-07   -78.108
   15    41.820   0.37734235E-07   -78.707
   16    92.814   0.54343420E-07   -78.769
   17  -152.408   0.39413820E-07   -80.072
   18    56.513   0.38745892E-07   -80.386
   19   113.916   0.38551669E-07   -80.868
   20   161.120   0.40005499E-07   -81.521
   21  -137.230   0.38889066E-07   -82.144
   22  -130.422   0.38883314E-07   -82.334
   23  -131.946   0.56172031E-07   -82.998
   24  -143.956   0.56181559E-07   -83.222
   25   175.102   0.40017365E-07   -84.116
    11     25
    1   155.312   0.38183515E-07   -61.910
    2   146.695   0.38175706E-07   -61.937
    3   128.019   0.38194166E-07   -62.007
    4  -169.600   0.39149594E-07   -67.667
    5   139.102   0.39175440E-07   -68.210
    6   -85.980   0.39375028E-07   -70.069
    7   110.945   0.40760696E-07   -74.128
    8  -147.160   0.57613761E-07   -75.409
    9   163.799   0.40745281E-07   -76.361
   10  -163.654   0.40711988E-07   -76.535
   11    10.094   0.57392402E-07   -77.694
   12   -59.314   0.58259634E-07   -78.585
   13  -102.512   0.57619037E-07   -78.585
   14  -108.188   0.40697817E-07   -78.632
   15   -85.493   0.57615839E-07   -79.480
   16  -179.452   0.42276582E-07   -79.901
   17   143.362   0.59366254E-07   -83.218
   18  -140.935   0.42831921E-07   -83.226
   19  -113.692   0.42810317E-07   -83.338
   20   164.890   0.59353130E-07   -83.387
   21   -38.609   0.41646306E-07   -83.697
   22     4.724   0.41465981E-07   -83.973
   23  -144.335   0.59342455E-07   -84.580
   24   168.776   0.59371448E-07   -84.624
   25  -148.462   0.59342263E-07   -85.113
    12     25
    1    37.541   0.41386542E-07   -62.571
    2    21.128   0.41403247E-07   -62.694
    3   173.737   0.42286597E-07   -67.950
    4   129.404   0.42310536E-07   -68.553
    5   138.102   0.42311424E-07   -68.573
    6   -75.367   0.42491020E-07   -70.308
    7  -104.062   0.43781114E-07   -74.183
    8    29.492   0.60893832E-07   -75.831
    9   -41.008   0.43744802E-07   -76.078
   10   -64.172   0.43771099E-07   -76.092
   11   -31.401   0.43737799E-07   -76.621
   12   172.643   0.60683838E-07   -78.213
   13    17.728   0.43723848E-07   -78.557
   14   166.381   0.61500913E-07   -78.981
   15    81.085   0.60897882E-07   -79.004
   16    88.286   0.45194788E-07   -79.721
   17    91.997   0.60895232E-07   -79.921
   18  -166.177   0.45697540E-07   -83.108
   19   153.046   0.62501428E-07   -83.470
   20   102.343   0.62541652E-07   -83.684
   21   179.970   0.62497563E-07   -85.246
   22   140.595   0.62532990E-07   -85.326
   23   140.361   0.62529246E-07   -85.437
   24  -163.569   0.45712831E-07   -85.626
   25   -68.141   0.47467189E-07   -85.920
    13     25
    1   -90.742   0.44616051E-07   -63.296
    2  -100.932   0.44631747E-07   -63.389
    3  -124.037   0.44634849E-07   -63.565
    4   131.205   0.45451571E-07   -68.377
    5    94.718   0.45469168E-07   -68.853
    6   -31.567   0.46847315E-07   -74.284
    7    20.642   0.46834465E-07   -76.083
    8  -149.046   0.64174579E-07   -76.473
    9    36.531   0.46822404E-07   -76.574
   10    37.120   0.46810147E-07   -76.729
   11    93.377   0.46793453E-07   -78.376
   12   -25.353   0.63980004E-07   -78.866
   13    18.338   0.64757273E-07   -79.405
   14  -103.304   0.64183318E-07   -79.622
   15   -83.614   0.48176076E-07   -79.738
   16   -93.400   0.64181009E-07   -80.415
   17   -77.087   0.45362693E-07   -80.853
   18   -83.922   0.45367610E-07   -81.152
   19    31.983   0.48682896E-07   -82.666
   20    64.064   0.48641997E-07   -82.872
   21    15.750   0.65753277E-07   -83.824
   22    46.701   0.65728685E-07   -83.843
   23    52.382   0.65737204E-07   -85.406
   24   -87.931   0.50328385E-07   -85.419
   25   -79.185   0.50329263E-07   -85.464
    14     25
    1   119.070   0.47878039E-07   -63.895
    2   128.472   0.47859217E-07   -64.066
    3   114.020   0.47874487E-07   -64.109
    4    53.573   0.48640388E-07   -68.793
    5    26.645   0.48658080E-07   -69.172
    6  -166.941   0.48822901E-07   -70.604
    7   -37.440   0.49991126E-07   -73.410
    8    25.553   0.49937256E-07   -74.201
    9    52.122   0.49936062E-07   -76.130
   10    77.827   0.49908284E-07   -76.753
   11    23.353   0.67466324E-07   -76.890
   12    72.038   0.49928065E-07   -78.639
   13   125.907   0.49893892E-07   -78.639
   14   133.501   0.67282500E-07   -79.288
   15    77.394   0.51182905E-07   -79.701
   16  -146.710   0.68031028E-07   -79.706
   17    68.176   0.67475867E-07   -80.009
   18  -161.880   0.48560043E-07   -80.729
   19  -146.997   0.48552806E-07   -80.785
   20    77.427   0.67474005E-07   -80.834
   21  -141.484   0.48558626E-07   -82.029
   22  -121.660   0.51638516E-07   -82.490
   23  -132.089   0.51646847E-07   -82.633
   24  -142.316   0.53199578E-07   -82.986
   25  -121.983   0.53208726E-07   -85.336
    15     25
    1   -23.562   0.51115084E-07   -64.697
    2   -40.693   0.51128616E-07   -64.737
    3   -34.890   0.51116249E-07   -64.824
    4    84.791   0.52024863E-07   -68.961
    5   -35.344   0.51845976E-07   -69.236
    6   -75.376   0.51865996E-07   -69.632
    7   115.594   0.52015739E-07   -70.993
    8     7.234   0.53067236E-07   -71.911
    9    43.937   0.53061701E-07   -74.149
   10    25.085   0.53072654E-07   -74.471
   11    17.977   0.53082257E-07   -74.518
   12    91.008   0.53031982E-07   -76.584
   13    59.263   0.53065285E-07   -76.626
   14   124.004   0.53025072E-07   -78.754
   15   110.256   0.53040907E-07   -79.123
   16    91.414   0.51770979E-07   -80.271
   17   110.267   0.51764822E-07   -80.566
   18    97.721   0.51771980E-07   -80.891
   19    -4.354   0.54676068E-07   -82.265
   20   121.016   0.56146813E-07   -85.145
   21    14.064   0.54680516E-07   -85.204
   22    72.009   0.97477077E-07   -86.974
   23   177.234   0.53686762E-07   -87.231
   24   101.650   0.56186511E-07   -87.389
   25    93.081   0.97602374E-07   -87.451
    16     25
    1   -80.655   0.54154125E-07   -64.387
    2   168.198   0.54379704E-07   -65.265
    3   152.166   0.54392363E-07   -65.305
    4   172.024   0.54384518E-07   -65.314
    5  -174.411   0.54380102E-07   -66.180
    6   166.012   0.54391659E-07   -66.230
    7  -159.023   0.55074757E-07   -69.365
    8     4.665   0.55231315E-07   -69.449
    9  -176.612   0.55081181E-07   -70.033
   10    14.057   0.55227595E-07   -71.315
   11     3.780   0.56220752E-07   -74.657
   12    36.551   0.56213644E-07   -76.650
   13    71.314   0.56186213E-07   -76.787
   14     0.276   0.10797176E-06   -77.917
   15    16.041   0.10796779E-06   -78.083
   16    93.762   0.56182525E-07   -78.615
   17  -128.257   0.57329348E-07   -79.848
   18   -10.796   0.54995404E-07   -80.465
   19    -7.555   0.54998392E-07   -81.348
   20    97.609   0.57730006E-07   -82.414
   21   -74.017   0.10889106E-06   -82.997
   22   -66.064   0.10889327E-06   -83.154
   23   107.131   0.57740539E-07   -85.049
   24   -55.969   0.59136546E-07   -85.056
   25   -83.283   0.56877212E-07   -86.056
    17     25
    1    -6.219   0.57653299E-07   -66.027
    2   -21.658   0.57665485E-07   -66.067
    3    32.567   0.58320943E-07   -68.723
    4    84.169   0.58302572E-07   -70.152
    5    52.339   0.58319870E-07   -70.450
    6   -96.578   0.58450304E-07   -71.526
    7   -39.131   0.59393660E-07   -74.764
    8    84.319   0.10979650E-06   -76.009
    9    28.879   0.59353802E-07   -76.573
   10    -8.714   0.59387837E-07   -76.634
   11     0.901   0.59368478E-07   -77.150
   12    50.554   0.59355056E-07   -78.844
   13  -101.090   0.60442005E-07   -79.893
   14   151.834   0.60821449E-07   -82.283
   15    49.026   0.10565055E-06   -82.807
   16    86.003   0.10562973E-06   -82.930
   17    74.811   0.62707386E-07   -83.446
   18  -105.356   0.59882716E-07   -84.563
   19    85.681   0.62158719E-07   -84.812
   20   157.408   0.60834523E-07   -84.897
   21   166.797   0.60089953E-07   -84.969
   22   -91.634   0.11020627E-06   -84.989
   23   163.135   0.60096887E-07   -85.345
   24   150.934   0.62674609E-07   -85.446
   25   -77.764   0.60011530E-07   -85.767
    18     25
    1  -113.565   0.60731814E-07   -65.690
    2   166.312   0.60933147E-07   -66.682
    3   152.083   0.60944373E-07   -66.722
    4   177.796   0.60933303E-07   -67.280
    5   166.263   0.60942845E-07   -67.448
    6   -59.751   0.61551233E-07   -70.234
    7   -81.776   0.61569096E-07   -70.769
    8   -82.557   0.61561771E-07   -70.953
    9   135.848   0.61686663E-07   -72.002
   10   -85.742   0.62568162E-07   -72.571
   11  -110.718   0.62581513E-07   -75.082
   12   -91.434   0.62562108E-07   -75.203
   13   -58.288   0.10648111E-06   -75.747
   14   -77.517   0.62576703E-07   -76.692
   15   -41.680   0.62544451E-07   -76.927
   16   120.266   0.63968017E-07   -77.335
   17   -73.632   0.62570315E-07   -77.371
   18    56.277   0.10179053E-06   -79.086
   19   108.013   0.10706883E-06   -79.539
   20    65.467   0.10178995E-06   -80.109
   21   170.334   0.63941599E-07   -82.592
   22  -156.462   0.10239361E-06   -82.871
   23  -152.014   0.63046862E-07   -83.020
   24  -122.751   0.63166290E-07   -83.074
   25   131.796   0.63245011E-07   -83.475
    19     25
    1    43.449   0.64027972E-07   -66.496
    2   -19.571   0.64219542E-07   -67.271
    3   -33.922   0.64230868E-07   -67.311
